File: MPT files/1_00V_10cyc.mpt
EC-Lab ASCII FILE
Nb header lines : 65

Potentio Electrochemical Impedance Spectroscopy

Run on channel : 1 (SN 11321)
User :
Electrode connection : standard
Potential control : Ewe
Ewe ctrl range : min = -10.00 V. max = 10.00 V
Ewe.I filtering : 50 kHz
Safety Limits :
	Do not start on E overload
Channel : Grounded
Acquisition started on : 04/11/2024 10:26:08.620
Loaded Setting File :  D:\ECLab Data\bh\Ir\Ir impedance\settings\Impedence\2nd\0.8 to 1.18 V.mps
Saved on :
	File : 0.8 to 1_11_PEIS_C01.mpr
	Directory : D:\ECLab Data\bh\Ir\Ir impedance\Repeat to remove negative imped\10 cycles imped\0.8 to 1.18 V\
	Host : 127.0.0.1
Device : SP-300 (SN 1287)
Address : USB
EC-Lab for windows v11.50 (software)
Internet server v11.50 (firmware)
Command interpretor v11.50 (firmware)
Electrode material :
Initial state :
Electrolyte :
Comments :
Cable : standard
Electrode surface area : 0.001 cm�
Characteristic mass : 0.001 g
Equivalent Weight : 0.000 g/eq.
Density : 0.000 g/cm3
Volume (V) : 0.001 cm�
Cycle Definition : Charge/Discharge alternance
Mode                Single sine
E (V)               1.0000
vs.                 Ref
tE (h:m:s)          0:00:0.0000
record              0
dI                  0.000
unit dI             mA
dt (s)              0.000
fi                  1.000
unit fi             Hz
ff                  0.200
unit ff             MHz
Nd                  10
Points              per decade
spacing             Logarithmic
Va (mV)             10.0
pw                  0.10
Na                  2
corr                0
E range min (V)     -10.000
E range max (V)     10.000
I Range             Auto
Bandwidth           8
nc cycles           0
goto Ns'            0
nr cycles           0
inc. cycle          0

freq/Hz	Re(Z)/Ohm	-Im(Z)/Ohm	|Z|/Ohm	Phase(Z)/deg	time/s	<Ewe>/V	<I>/mA	Cs/�F	Cp/�F	cycle number	I Range	|Ewe|/V	|I|/A	Ns	(Q-Qo)/mA.h	Re(Y)/Ohm-1	Im(Y)/Ohm-1	|Y|/Ohm-1	Phase(Y)/deg	Re(C)/nF	Im(C)/nF	|C|/nF	Phase(C)/deg	Re(M)	Im(M)	|M|	Phase(M)/deg	Re(Permittivity)	Im(Permittivity)	|Permittivity|	Phase(Permittivity)/deg	Re(Resistivity)/Ohm.cm	Im(Resistivity)/Ohm.cm	|Resistivity|/Ohm.cm	Phase(Resistivity)/deg	Re(Conductivity)/mS/cm	Im(Conductivity)/mS/cm	|Conductivity|/mS/cm	Phase(Conductivity)/deg	Tan(Delta)	Loss Angle(Delta)/deg	dq/mA.h
1.00006	38.4003	806.246	807.16	-87.2731	04/11/2024 10:31:20.6403	1.00062	0.000242516	197.39	196.944	1	41	0.0100633	1.24675e-05	0	-2.17964e-07	5.89407e-05	0.00123751	0.00123891	87.2731	196944	9380.13	197167	-2.72685	0.0000000E+000	0.0000000E+000	0.0000000E+000	2.72685	0.0000000E+000	0.0000000E+000	0.0000000E+000	-2.72685	0.0000000E+000	0.0000000E+000	0.0000000E+000	-87.2731	0.0000000E+000	0.0000000E+000	0.0000000E+000	87.2731	0.0476286	2.72685	-2.17964e-07
1.99502	23.4396	413.991	414.654	-86.7595	04/11/2024 10:31:24.8032	1.00061	0.000182048	192.7	192.085	1	41	0.0100681	2.42807e-05	0	1.01349e-06	0.000136326	0.0024078	0.00241165	86.7595	192085	10875.6	192392	-3.24055	0.0000000E+000	0.0000000E+000	0.0000000E+000	3.24055	0.0000000E+000	0.0000000E+000	0.0000000E+000	-3.24055	0.0000000E+000	0.0000000E+000	0.0000000E+000	-86.7595	0.0000000E+000	0.0000000E+000	0.0000000E+000	86.7595	0.0566186	3.24054	3.60901e-07
3.9819	18.0875	210.314	211.091	-85.0845	04/11/2024 10:31:27.4050	1.00062	0.000140883	190.047	188.651	1	40	0.0100631	4.76717e-05	0	1.1111e-06	0.000405919	0.00471988	0.0047373	85.0845	188651	16224.4	189348	-4.91546	0.0000000E+000	0.0000000E+000	0.0000000E+000	4.91546	0.0000000E+000	0.0000000E+000	0.0000000E+000	-4.91546	0.0000000E+000	0.0000000E+000	0.0000000E+000	-85.0845	0.0000000E+000	0.0000000E+000	0.0000000E+000	85.0845	0.0860021	4.91547	7.11871e-07
7.94761	15.5225	106.871	107.992	-81.7358	04/11/2024 10:31:28.8215	1.00061	0.000103301	187.38	183.509	1	40	0.0100678	9.32275e-05	0	1.27658e-06	0.001331	0.00916377	0.00925992	81.7358	183509	26653.9	185435	-8.26417	0.0000000E+000	0.0000000E+000	0.0000000E+000	8.26417	0.0000000E+000	0.0000000E+000	0.0000000E+000	-8.26417	0.0000000E+000	0.0000000E+000	0.0000000E+000	-81.7358	0.0000000E+000	0.0000000E+000	0.0000000E+000	81.7358	0.145246	8.26416	8.18809e-07
15.8576	14.2666	54.4416	56.2799	-75.3156	04/11/2024 10:31:30.5619	1.00061	-0.000368146	184.354	172.507	1	39	0.0100658	0.000178852	0	5.28769e-07	0.00450417	0.017188	0.0177683	75.3156	172507	45206.1	178332	-14.6844	0.0000000E+000	0.0000000E+000	0.0000000E+000	14.6844	0.0000000E+000	0.0000000E+000	0.0000000E+000	-14.6844	0.0000000E+000	0.0000000E+000	0.0000000E+000	-75.3156	0.0000000E+000	0.0000000E+000	0.0000000E+000	75.3156	0.262054	14.6844	2.00601e-07
31.6509	13.4991	27.7344	30.8451	-64.0465	04/11/2024 10:31:31.9333	1.00063	-0.000366839	181.308	146.582	1	39	0.0100686	0.000326425	0	9.45808e-07	0.0141883	0.0291505	0.0324201	64.0465	146582	71345.4	163023	-25.9535	0.0000000E+000	0.0000000E+000	0.0000000E+000	25.9535	0.0000000E+000	0.0000000E+000	0.0000000E+000	-25.9535	0.0000000E+000	0.0000000E+000	0.0000000E+000	-64.0465	0.0000000E+000	0.0000000E+000	0.0000000E+000	64.0465	0.486727	25.9535	3.1449e-07
63.1607	13.1067	14.2118	19.3329	-47.3164	04/11/2024 10:31:33.3416	1.00062	-0.000369443	177.306	95.8137	1	39	0.0100859	0.000521695	0	1.66343e-06	0.0350671	0.0380237	0.0517253	47.3164	95813.7	88363.5	130339	-42.6836	0.0000000E+000	0.0000000E+000	0.0000000E+000	42.6836	0.0000000E+000	0.0000000E+000	0.0000000E+000	-42.6836	0.0000000E+000	0.0000000E+000	0.0000000E+000	-47.3164	0.0000000E+000	0.0000000E+000	0.0000000E+000	47.3164	0.922243	42.6836	3.00291e-07
126.008	12.8361	7.36392	14.7984	-29.8424	04/11/2024 10:31:34.7362	1.00061	-0.000414525	171.519	42.472	1	39	0.0100939	0.000682094	0	2.03879e-06	0.0586143	0.0336264	0.067575	29.8424	42472	74033.1	85350.9	-60.1576	0.0000000E+000	0.0000000E+000	0.0000000E+000	60.1576	0.0000000E+000	0.0000000E+000	0.0000000E+000	-60.1576	0.0000000E+000	0.0000000E+000	0.0000000E+000	-29.8424	0.0000000E+000	0.0000000E+000	0.0000000E+000	29.8424	1.7431	60.1576	4.08632e-07
251.529	12.6307	3.92058	13.2252	-17.2444	04/11/2024 10:31:36.3866	1.00063	-0.00484947	161.392	14.1834	1	38	0.0100688	0.000761338	0	1.60863e-07	0.0722145	0.0224155	0.0756134	17.2444	14183.4	45693.6	47844.3	-72.7556	0.0000000E+000	0.0000000E+000	0.0000000E+000	72.7556	0.0000000E+000	0.0000000E+000	0.0000000E+000	-72.7556	0.0000000E+000	0.0000000E+000	0.0000000E+000	-17.2444	0.0000000E+000	0.0000000E+000	0.0000000E+000	17.2444	3.22163	72.7556	-1.43977e-06
501.766	12.4327	2.21234	12.628	-10.0899	04/11/2024 10:31:37.7791	1.00062	-0.00513474	143.373	4.4005	1	38	0.0100716	0.000797557	0	-2.99736e-07	0.0779644	0.0138734	0.0791891	10.0899	4400.5	24729.5	25118	-79.9101	0.0000000E+000	0.0000000E+000	0.0000000E+000	79.9101	0.0000000E+000	0.0000000E+000	0.0000000E+000	-79.9101	0.0000000E+000	0.0000000E+000	0.0000000E+000	-10.0899	0.0000000E+000	0.0000000E+000	0.0000000E+000	10.0899	5.6197	79.9101	-1.05459e-07
1001.6	12.225	1.34485	12.2987	-6.27779	04/11/2024 10:31:39.1704	1.00062	-0.00500609	118.154	1.41279	1	38	0.0100759	0.000819261	0	-2.04148e-06	0.0808216	0.00889107	0.0813092	6.27779	1412.79	12842.6	12920	-83.7222	0.0000000E+000	0.0000000E+000	0.0000000E+000	83.7222	0.0000000E+000	0.0000000E+000	0.0000000E+000	-83.7222	0.0000000E+000	0.0000000E+000	0.0000000E+000	-6.27779	0.0000000E+000	0.0000000E+000	0.0000000E+000	6.27779	9.0902	83.7222	-8.76176e-07
1998.08	12.0057	0.909021	12.0401	-4.32994	04/11/2024 10:31:40.5659	1.00063	-0.00507321	87.626	0.499487	1	38	0.0100747	0.000836765	0	-3.76402e-06	0.082819	0.00627071	0.0830561	4.32994	499.487	6596.86	6615.74	-85.6701	0.0000000E+000	0.0000000E+000	0.0000000E+000	85.6701	0.0000000E+000	0.0000000E+000	0.0000000E+000	-85.6701	0.0000000E+000	0.0000000E+000	0.0000000E+000	-4.32994	0.0000000E+000	0.0000000E+000	0.0000000E+000	4.32994	13.2073	85.6701	-5.70716e-07
3986.28	11.7978	0.704335	11.8188	-3.41654	04/11/2024 10:31:41.9607	1.00064	-0.005778	56.6857	0.20132	1	38	0.0100688	0.00085193	0	-4.77932e-06	0.0844608	0.00504237	0.0846112	3.41654	201.32	3372.16	3378.16	-86.5835	0.0000000E+000	0.0000000E+000	0.0000000E+000	86.5835	0.0000000E+000	0.0000000E+000	0.0000000E+000	-86.5835	0.0000000E+000	0.0000000E+000	0.0000000E+000	-3.41654	0.0000000E+000	0.0000000E+000	0.0000000E+000	3.41654	16.7502	86.5835	-1.51161e-07
7959.76	11.5819	0.631364	11.5991	-3.12028	04/11/2024 10:31:43.1348	1.00063	-0.00536594	31.6694	0.0938326	1	38	0.0100334	0.000865017	0	-6.14223e-06	0.086086	0.00469282	0.0862138	3.12028	93.8327	1721.28	1723.84	-86.8797	0.0000000E+000	0.0000000E+000	0.0000000E+000	86.8797	0.0000000E+000	0.0000000E+000	0.0000000E+000	-86.8797	0.0000000E+000	0.0000000E+000	0.0000000E+000	-3.12028	0.0000000E+000	0.0000000E+000	0.0000000E+000	3.12028	18.3442	86.8797	-7.76953e-07
15875.5	11.3136	0.577778	11.3283	-2.92352	04/11/2024 10:31:44.1185	1.00066	-0.00567731	17.3513	0.0451357	1	38	0.0103711	0.000915499	0	-7.66843e-06	0.0881592	0.00450223	0.0882741	2.92352	45.1357	883.812	884.964	-87.0765	0.0000000E+000	0.0000000E+000	0.0000000E+000	87.0765	0.0000000E+000	0.0000000E+000	0.0000000E+000	-87.0765	0.0000000E+000	0.0000000E+000	0.0000000E+000	-2.92352	0.0000000E+000	0.0000000E+000	0.0000000E+000	2.92352	19.5812	87.0765	-1.13102e-06
31686.1	11.0283	0.46805	11.0382	-2.43023	04/11/2024 10:31:44.9705	1.00065	-0.0056568	10.7315	0.0192951	1	38	0.00983282	0.0008908	0	-9.77633e-06	0.090513	0.00384146	0.0905945	2.43023	19.2951	454.635	455.044	-87.5698	0.0000000E+000	0.0000000E+000	0.0000000E+000	87.5698	0.0000000E+000	0.0000000E+000	0.0000000E+000	-87.5698	0.0000000E+000	0.0000000E+000	0.0000000E+000	-2.43023	0.0000000E+000	0.0000000E+000	0.0000000E+000	2.43023	23.5622	87.5698	-1.12276e-06
63233	10.8602	0.29827	10.8643	-1.57321	04/11/2024 10:31:46.0925	1.00066	-0.00704588	8.43853	0.00636038	1	38	0.00990475	0.00091168	0	-1.22027e-05	0.09201	0.00252701	0.0920447	1.57321	6.36038	231.585	231.673	-88.4268	0.0000000E+000	0.0000000E+000	0.0000000E+000	88.4268	0.0000000E+000	0.0000000E+000	0.0000000E+000	-88.4268	0.0000000E+000	0.0000000E+000	0.0000000E+000	-1.57321	0.0000000E+000	0.0000000E+000	0.0000000E+000	1.57321	36.4106	88.4268	-7.59285e-07
126178	10.7793	0.149793	10.7804	-0.796152	04/11/2024 10:31:47.3495	1.00065	-0.00705707	8.4206	0.00162578	1	38	0.00952553	0.000883601	0	-1.588e-05	0.0927523	0.00128892	0.0927613	0.796152	1.62577	116.993	117.004	-89.2039	0.0000000E+000	0.0000000E+000	0.0000000E+000	89.2039	0.0000000E+000	0.0000000E+000	0.0000000E+000	-89.2039	0.0000000E+000	0.0000000E+000	0.0000000E+000	-0.796152	0.0000000E+000	0.0000000E+000	0.0000000E+000	0.796152	71.9613	89.2039	-5.48029e-07
199998	10.7498	0.0543692	10.7499	-0.289783	04/11/2024 10:31:48.1875	1.00064	-0.00690231	14.6366	0.000374401	1	38	0.00956226	0.00088952	0	-1.79301e-05	0.0930228	0.000470482	0.093024	0.289783	0.374397	74.0259	74.0268	-89.7102	0.0000000E+000	0.0000000E+000	0.0000000E+000	89.7102	0.0000000E+000	0.0000000E+000	0.0000000E+000	-89.7102	0.0000000E+000	0.0000000E+000	0.0000000E+000	-0.289783	0.0000000E+000	0.0000000E+000	0.0000000E+000	0.289783	197.718	89.7102	-6.63992e-07