File: MPT files/1_58V_10cyc.mpt
EC-Lab ASCII FILE
Nb header lines : 65

Potentio Electrochemical Impedance Spectroscopy

Run on channel : 1 (SN 11321)
User :
Electrode connection : standard
Potential control : Ewe
Ewe ctrl range : min = -10.00 V. max = 10.00 V
Ewe.I filtering : 50 kHz
Safety Limits :
	Do not start on E overload
Channel : Grounded
Acquisition started on : 04/11/2024 10:37:55.468
Loaded Setting File :  D:\ECLab Data\bh\Ir\Ir impedance\settings\Impedence\3rd\1.2 to 1.58 V.mps
Saved on :
	File : 1.2 to 1_20_PEIS_C01.mpr
	Directory : D:\ECLab Data\bh\Ir\Ir impedance\Repeat to remove negative imped\10 cycles imped\1.2 to 1.58\
	Host : 127.0.0.1
Device : SP-300 (SN 1287)
Address : USB
EC-Lab for windows v11.50 (software)
Internet server v11.50 (firmware)
Command interpretor v11.50 (firmware)
Electrode material :
Initial state :
Electrolyte :
Comments :
Cable : standard
Electrode surface area : 0.001 cm�
Characteristic mass : 0.001 g
Equivalent Weight : 0.000 g/eq.
Density : 0.000 g/cm3
Volume (V) : 0.001 cm�
Cycle Definition : Charge/Discharge alternance
Mode                Single sine
E (V)               1.5800
vs.                 Ref
tE (h:m:s)          0:00:0.0000
record              0
dI                  0.000
unit dI             mA
dt (s)              0.000
fi                  1.000
unit fi             Hz
ff                  0.200
unit ff             MHz
Nd                  10
Points              per decade
spacing             Logarithmic
Va (mV)             10.0
pw                  0.10
Na                  2
corr                0
E range min (V)     -10.000
E range max (V)     10.000
I Range             Auto
Bandwidth           8
nc cycles           0
goto Ns'            0
nr cycles           0
inc. cycle          0

freq/Hz	Re(Z)/Ohm	-Im(Z)/Ohm	|Z|/Ohm	Phase(Z)/deg	time/s	<Ewe>/V	<I>/mA	Cs/�F	Cp/�F	cycle number	I Range	|Ewe|/V	|I|/A	Ns	(Q-Qo)/mA.h	Re(Y)/Ohm-1	Im(Y)/Ohm-1	|Y|/Ohm-1	Phase(Y)/deg	Re(C)/nF	Im(C)/nF	|C|/nF	Phase(C)/deg	Re(M)	Im(M)	|M|	Phase(M)/deg	Re(Permittivity)	Im(Permittivity)	|Permittivity|	Phase(Permittivity)/deg	Re(Resistivity)/Ohm.cm	Im(Resistivity)/Ohm.cm	|Resistivity|/Ohm.cm	Phase(Resistivity)/deg	Re(Conductivity)/mS/cm	Im(Conductivity)/mS/cm	|Conductivity|/mS/cm	Phase(Conductivity)/deg	Tan(Delta)	Loss Angle(Delta)/deg	dq/mA.h
1.00006	66.4605	4.16219	66.5907	-3.58356	04/11/2024 10:47:39.8647	1.58052	0.323527	38235.9	149.379	1	40	0.0100697	0.000151218	0	0.000195291	0.0149878	0.000938632	0.0150171	3.58356	149379	2.38523e+06	2.3899e+06	-86.4164	0.0000000E+000	0.0000000E+000	0.0000000E+000	86.4164	0.0000000E+000	0.0000000E+000	0.0000000E+000	-86.4164	0.0000000E+000	0.0000000E+000	0.0000000E+000	-3.58356	0.0000000E+000	0.0000000E+000	0.0000000E+000	3.58356	15.9677	86.4164	0.000195291
1.99502	72.7898	6.56566	73.0853	-5.15415	04/11/2024 10:47:44.0288	1.58051	0.298901	12150.5	98.0599	1	40	0.0100721	0.000137812	0	0.000545211	0.0136273	0.00122919	0.0136826	5.15415	98059.9	1.08713e+06	1.09155e+06	-84.8458	0.0000000E+000	0.0000000E+000	0.0000000E+000	84.8458	0.0000000E+000	0.0000000E+000	0.0000000E+000	-84.8458	0.0000000E+000	0.0000000E+000	0.0000000E+000	-5.15415	0.0000000E+000	0.0000000E+000	0.0000000E+000	5.15415	11.0864	84.8458	9.21221e-05
3.9819	73.2075	13.0056	74.3538	-10.0737	04/11/2024 10:47:46.1806	1.5805	0.289744	3073.25	94.0275	1	40	0.0100679	0.000135405	0	0.000718835	0.0132419	0.00235248	0.0134492	10.0737	94027.5	529272	537559	-79.9263	0.0000000E+000	0.0000000E+000	0.0000000E+000	79.9263	0.0000000E+000	0.0000000E+000	0.0000000E+000	-79.9263	0.0000000E+000	0.0000000E+000	0.0000000E+000	-10.0737	0.0000000E+000	0.0000000E+000	0.0000000E+000	10.0737	5.62891	79.9263	4.34832e-05
7.94761	67.4623	22.111	70.9934	-18.1467	04/11/2024 10:47:47.5971	1.58051	0.285045	905.682	87.8528	1	40	0.0100744	0.000141907	0	0.000830793	0.0133852	0.00438704	0.0140858	18.1467	87852.8	268046	282076	-71.8533	0.0000000E+000	0.0000000E+000	0.0000000E+000	71.8533	0.0000000E+000	0.0000000E+000	0.0000000E+000	-71.8533	0.0000000E+000	0.0000000E+000	0.0000000E+000	-18.1467	0.0000000E+000	0.0000000E+000	0.0000000E+000	18.1467	3.05108	71.8533	4.44178e-05
15.8576	52.7045	31.0656	61.1787	-30.5163	04/11/2024 10:47:49.2996	1.5805	0.278894	323.075	83.3032	1	39	0.0100661	0.000164536	0	0.000959912	0.0140814	0.00830001	0.0163456	30.5163	83303.2	141329	164052	-59.4837	0.0000000E+000	0.0000000E+000	0.0000000E+000	59.4837	0.0000000E+000	0.0000000E+000	0.0000000E+000	-59.4837	0.0000000E+000	0.0000000E+000	0.0000000E+000	-30.5163	0.0000000E+000	0.0000000E+000	0.0000000E+000	30.5163	1.69656	59.4837	3.35336e-05
31.6509	32.4837	29.4583	43.8518	-42.2037	04/11/2024 10:47:50.6699	1.58051	0.274702	170.697	77.0312	1	39	0.0100741	0.000229731	0	0.00106327	0.0168924	0.0153191	0.0228041	42.2037	77031.2	84942.5	114669	-47.7963	0.0000000E+000	0.0000000E+000	0.0000000E+000	47.7963	0.0000000E+000	0.0000000E+000	0.0000000E+000	-47.7963	0.0000000E+000	0.0000000E+000	0.0000000E+000	-42.2037	0.0000000E+000	0.0000000E+000	0.0000000E+000	42.2037	1.1027	47.7963	3.31707e-05
63.1607	19.5071	19.6688	27.7018	-45.2365	04/11/2024 10:47:52.0772	1.5805	0.269094	128.114	64.5856	1	39	0.0100809	0.000363908	0	0.00116661	0.0254201	0.0256308	0.0360988	45.2365	64585.6	64054.7	90963.1	-44.7635	0.0000000E+000	0.0000000E+000	0.0000000E+000	44.7635	0.0000000E+000	0.0000000E+000	0.0000000E+000	-44.7635	0.0000000E+000	0.0000000E+000	0.0000000E+000	-45.2365	0.0000000E+000	0.0000000E+000	0.0000000E+000	45.2365	0.99178	44.7636	3.47114e-05
126.008	14.5376	11.0754	18.2759	-37.3018	04/11/2024 10:47:53.4718	1.5805	0.262154	114.041	41.8819	1	39	0.0101063	0.000552985	0	0.00126684	0.0435249	0.0331592	0.054717	37.3018	41881.9	54974.3	69110.5	-52.6982	0.0000000E+000	0.0000000E+000	0.0000000E+000	52.6982	0.0000000E+000	0.0000000E+000	0.0000000E+000	-52.6982	0.0000000E+000	0.0000000E+000	0.0000000E+000	-37.3018	0.0000000E+000	0.0000000E+000	0.0000000E+000	37.3018	1.3126	52.6982	3.2517e-05
251.529	12.9391	5.91418	14.2266	-24.5642	04/11/2024 10:47:55.1202	1.58052	0.249032	106.988	18.4894	1	38	0.0100748	0.000708166	0	0.00137931	0.0639292	0.0292207	0.0702907	24.5642	18489.4	40451.1	44476.4	-65.4358	0.0000000E+000	0.0000000E+000	0.0000000E+000	65.4358	0.0000000E+000	0.0000000E+000	0.0000000E+000	-65.4358	0.0000000E+000	0.0000000E+000	0.0000000E+000	-24.5642	0.0000000E+000	0.0000000E+000	0.0000000E+000	24.5642	2.1878	65.4358	3.15826e-05
501.766	12.4172	3.211	12.8256	-14.4987	04/11/2024 10:47:56.5137	1.58051	0.243782	98.7822	6.19156	1	38	0.0100784	0.000785802	0	0.0014738	0.0754857	0.0195201	0.0779688	14.4987	6191.56	23943.3	24730.9	-75.5013	0.0000000E+000	0.0000000E+000	0.0000000E+000	75.5013	0.0000000E+000	0.0000000E+000	0.0000000E+000	-75.5013	0.0000000E+000	0.0000000E+000	0.0000000E+000	-14.4987	0.0000000E+000	0.0000000E+000	0.0000000E+000	14.4987	3.86708	75.5013	3.06554e-05
1001.6	12.134	1.84891	12.2741	-8.66377	04/11/2024 10:47:57.9051	1.5805	0.240463	85.9426	1.95013	1	38	0.0100788	0.000821144	0	0.00156388	0.080543	0.0122727	0.0814727	8.66377	1950.13	12798.3	12946	-81.3362	0.0000000E+000	0.0000000E+000	0.0000000E+000	81.3362	0.0000000E+000	0.0000000E+000	0.0000000E+000	-81.3362	0.0000000E+000	0.0000000E+000	0.0000000E+000	-8.66377	0.0000000E+000	0.0000000E+000	0.0000000E+000	8.66377	6.56278	81.3362	2.98007e-05
1998.08	11.9128	1.16782	11.9699	-5.59887	04/11/2024 10:47:59.3006	1.5805	0.237959	68.2073	0.649237	1	38	0.0100803	0.000842141	0	0.00165463	0.0831445	0.00815073	0.083543	5.59887	649.237	6622.78	6654.52	-84.4011	0.0000000E+000	0.0000000E+000	0.0000000E+000	84.4011	0.0000000E+000	0.0000000E+000	0.0000000E+000	-84.4011	0.0000000E+000	0.0000000E+000	0.0000000E+000	-5.59887	0.0000000E+000	0.0000000E+000	0.0000000E+000	5.59887	10.2009	84.4011	3.09484e-05
3986.28	11.7048	0.850717	11.7357	-4.15701	04/11/2024 10:48:00.6953	1.58051	0.236042	46.9318	0.246617	1	38	0.0100771	0.000858675	0	0.00174561	0.0849862	0.00617689	0.0852104	4.15701	246.617	3393.13	3402.08	-85.843	0.0000000E+000	0.0000000E+000	0.0000000E+000	85.843	0.0000000E+000	0.0000000E+000	0.0000000E+000	-85.843	0.0000000E+000	0.0000000E+000	0.0000000E+000	-4.15701	0.0000000E+000	0.0000000E+000	0.0000000E+000	4.15701	13.7587	85.843	2.99063e-05
7959.76	11.467	0.7017	11.4885	-3.50172	04/11/2024 10:48:01.8694	1.5805	0.234161	28.495	0.106303	1	38	0.010047	0.000874529	0	0.0018205	0.0868811	0.00531649	0.0870436	3.50172	106.303	1737.18	1740.43	-86.4983	0.0000000E+000	0.0000000E+000	0.0000000E+000	86.4983	0.0000000E+000	0.0000000E+000	0.0000000E+000	-86.4983	0.0000000E+000	0.0000000E+000	0.0000000E+000	-3.50172	0.0000000E+000	0.0000000E+000	0.0000000E+000	3.50172	16.3418	86.4983	1.98947e-05
15875.5	11.1819	0.59288	11.1976	-3.03507	04/11/2024 10:48:02.8521	1.58051	0.231334	16.9093	0.0474035	1	38	0.010376	0.000926632	0	0.00188524	0.0891798	0.00472844	0.089305	3.03507	47.4035	894.043	895.299	-86.9649	0.0000000E+000	0.0000000E+000	0.0000000E+000	86.9649	0.0000000E+000	0.0000000E+000	0.0000000E+000	-86.9649	0.0000000E+000	0.0000000E+000	0.0000000E+000	-3.03507	0.0000000E+000	0.0000000E+000	0.0000000E+000	3.03507	18.8603	86.9649	1.85161e-05
31686.1	10.9399	0.43215	10.9484	-2.26213	04/11/2024 10:48:03.7041	1.58052	0.23051	11.623	0.0181085	1	38	0.00982913	0.000897767	0	0.00193833	0.0912662	0.00360522	0.0913373	2.26213	18.1085	458.418	458.775	-87.7379	0.0000000E+000	0.0000000E+000	0.0000000E+000	87.7379	0.0000000E+000	0.0000000E+000	0.0000000E+000	-87.7379	0.0000000E+000	0.0000000E+000	0.0000000E+000	-2.26213	0.0000000E+000	0.0000000E+000	0.0000000E+000	2.26213	25.315	87.7379	1.75788e-05
63233	10.795	0.256071	10.7981	-1.35887	04/11/2024 10:48:04.8271	1.58053	0.228724	9.82916	0.0055277	1	38	0.00987045	0.000914095	0	0.00200814	0.0925832	0.00219618	0.0926092	1.35887	5.52772	233.028	233.094	-88.6411	0.0000000E+000	0.0000000E+000	0.0000000E+000	88.6411	0.0000000E+000	0.0000000E+000	0.0000000E+000	-88.6411	0.0000000E+000	0.0000000E+000	0.0000000E+000	-1.35887	0.0000000E+000	0.0000000E+000	0.0000000E+000	1.35887	42.1564	88.6411	2.59456e-05
126178	10.7216	0.124097	10.7223	-0.663144	04/11/2024 10:48:06.0841	1.58052	0.227579	10.1642	0.00136152	1	38	0.00944234	0.000880627	0	0.00208408	0.0932574	0.00107941	0.0932636	0.663144	1.36152	117.63	117.638	-89.3369	0.0000000E+000	0.0000000E+000	0.0000000E+000	89.3369	0.0000000E+000	0.0000000E+000	0.0000000E+000	-89.3369	0.0000000E+000	0.0000000E+000	0.0000000E+000	-0.663144	0.0000000E+000	0.0000000E+000	0.0000000E+000	0.663144	86.3964	89.3369	2.5933e-05
199998	10.7062	0.031714	10.7063	-0.169722	04/11/2024 10:48:06.9221	1.58052	0.226518	25.0924	0.000220176	1	38	0.00957648	0.000894475	0	0.00213682	0.0934029	0.000276679	0.0934033	0.169722	0.220179	74.3283	74.3287	-89.8303	0.0000000E+000	0.0000000E+000	0.0000000E+000	89.8303	0.0000000E+000	0.0000000E+000	0.0000000E+000	-89.8303	0.0000000E+000	0.0000000E+000	0.0000000E+000	-0.169722	0.0000000E+000	0.0000000E+000	0.0000000E+000	0.169722	337.586	89.8303	2.55359e-05